File: output_data/TGA_change_in_mass_per_degree_binned_1C_T.csv
,Temperature,0,1,2,3,4,5,6,7,8,9,10,11,12,13,14,15,16,17,18,19,20,21,22,23,24,25,26,27,28,29,30,31,32
41,74,-0.00136968,-0.00103949,-0.000849925,-0.000612729,-0.00106346,-0.00126492,-0.00116183,-0.0010058,-0.00113827,-0.00132846,-0.00139582,-0.00144508,-0.00125165,-0.00283209,-0.00115514,-0.00164536,-0.00102422,-0.000496997,-0.00129873,-0.00173869,-0.000726318,-0.000954665,-0.00114261,-0.000996299,-0.000844797,-0.000563073,-0.000648923,-0.000688246,-0.00166903,-0.000586323,-0.000897596,-0.00138099,-0.000310409
83,116,-0.000751686,-0.00190589,-0.00104282,-0.000687214,-0.00122241,-0.00267644,-0.0027347,-0.00180583,-0.00189712,-0.00361662,-0.00288264,-0.00296871,-0.00186479,-0.00182309,-0.0024506,-0.00117227,-0.00108696,-0.00154609,-0.00133098,-0.00116175,-0.00117278,-0.00141737,-0.000985885,-0.00149487,-0.000843752,-0.00134799,-0.000991914,-0.0010082,-0.00109659,-0.00141415,-0.00119387,-0.00106345,-0.00113538
125,158,-0.000529635,-0.000602335,-0.000394024,-0.000588657,-0.000572778,-0.0008424,-0.000903876,-0.000873267,-0.000895295,-0.00073398,-0.000634364,-0.000823821,-0.000721578,-0.000556535,-0.000913732,-0.000792767,-0.000855689,-0.0011511,-0.000742847,-0.000594751,-0.000626173,-0.000768242,-0.000632188,-0.000828497,-0.000301575,-0.000843607,-0.000521439,-0.000531182,-0.000597349,-0.000771434,-0.000670053,-0.000618891,-0.000786419
167,200,-0.000614231,-0.000503803,-0.000286799,-0.000671869,-0.000519307,-0.000604209,-0.000604865,-0.000549717,-0.000608733,-0.000561135,-0.000591985,-0.000595286,-0.000621664,-0.00058387,-0.000740283,-0.000697633,-0.000753757,-0.000613633,-0.000469014,-0.000345741,-0.000293425,-0.00042297,-0.000521369,-0.000464513,-0.00028276,-0.000299446,-0.000173942,-0.000213018,-0.00048634,-0.000447082,-0.000446589,-0.000581825,-0.000430542
209,242,-0.0010245,-0.000741126,-0.000301495,-0.00153463,-0.000938934,-0.000413718,-0.000424907,-0.000444573,-0.00043915,-0.000385731,-0.000421951,-0.000412193,-0.00050132,-0.000311452,-0.000383634,-0.00036722,-0.000397567,-0.000361071,-0.000359716,-0.000293814,-0.000202574,-0.000257455,-0.000420753,-0.000323774,-0.00031819,-0.000208001,-0.000117153,-0.000162375,-0.000335451,-0.000336444,-0.000295755,-0.000452226,-0.00028357
251,284,-0.000499382,-0.000722358,-0.000420844,-0.000471218,-0.000569696,-0.000380816,-0.000386833,-0.000399318,-0.000406963,-0.000347016,-0.000350126,-0.000379307,-0.000421987,-0.000306983,-0.00034902,-0.000382127,-0.000403128,-0.000344449,-0.000397667,-0.000319328,-0.00017002,-0.000243223,-0.000400283,-0.000242351,-0.000267779,-0.000190161,-0.000127353,-0.00015549,-0.000325745,-0.000329277,-0.000260063,-0.000359725,-0.0002405
293,326,-0.000439868,-0.000424374,-0.00060303,-0.000440665,-0.000481019,-0.000349888,-0.000350571,-0.000337911,-0.000357133,-0.000327424,-0.000338183,-0.000347941,-0.000379127,-0.000347444,-0.000403137,-0.000445183,-0.000447723,-0.000395343,-0.0004516,-0.000510534,-0.000185733,-0.000280859,-0.000355943,-0.000130561,-0.000218086,-0.000153428,-0.000117946,-0.000137522,-0.000325895,-0.000314631,-0.000234614,-0.000278136,-0.000224264
335,368,-0.000426205,-0.000384283,-0.000465011,-0.000399305,-0.000397342,-0.000292093,-0.000289033,-0.000266914,-0.000277752,-0.000287105,-0.000318207,-0.000295412,-0.000315985,-0.000330996,-0.000527218,-0.000555739,-0.000488114,-0.000433935,-0.000493386,-0.00079181,-0.000269563,-0.000441149,-0.000283561,-6.09014e-05,-0.000165911,-0.000122993,-9.4458e-05,-0.000110742,-0.000286698,-0.00026901,-0.000194488,-0.00020104,-0.000186831
377,410,-0.000288989,-0.000310133,-0.000391348,-0.000263437,-0.000305483,-0.000208061,-0.00020754,-0.000192236,-0.000197147,-0.000207349,-0.000251776,-0.000203593,-0.000241827,-0.000210516,-0.000402718,-0.000417006,-0.000387212,-0.000405087,-0.000377136,-0.000579032,-0.000696004,-0.000854076,-0.000196292,-3.00838e-05,-0.000104568,-9.25576e-05,-7.09705e-05,-8.4627e-05,-0.00019512,-0.00020162,-0.000127793,-0.000134058,-0.000130377
419,452,-0.000209604,-0.000226787,-0.000284376,-0.000184811,-0.000232008,-0.000161067,-0.000161561,-0.00014212,-0.000158993,-0.000163538,-0.00023849,-0.000144518,-0.000202084,-0.000168158,-0.000273592,-0.000286343,-0.000284602,-0.000265517,-0.000257765,-0.000340348,-0.00100217,-0.000629046,-0.000161448,-1.91722e-05,-5.53762e-05,-6.15461e-05,-5.53054e-05,-5.90842e-05,-0.000154822,-0.000150486,-9.91974e-05,-0.000104914,-8.5017e-05
461,494,-0.000146972,-0.000190906,-0.000217658,-0.000144167,-0.000185498,-0.000158595,-0.000158038,-0.00012501,-0.000158808,-0.000145158,-0.000205228,-0.000128749,-0.000162519,-0.000134872,-0.000207171,-0.000226223,-0.00023009,-0.00019168,-0.000220616,-0.000278695,-0.000407113,-0.000313522,-0.000169386,-1.4462e-05,-2.7307e-05,-3.46867e-05,-3.92339e-05,-3.80253e-05,-0.000119998,-0.000122266,-7.28405e-05,-9.85548e-05,-6.48743e-05
503,536,-0.000119188,-0.000152699,-0.000171449,-0.000109286,-0.00014649,-0.000126397,-0.000121873,-0.000106557,-0.000122944,-0.000109119,-0.000135947,-9.74323e-05,-0.000100523,-9.73695e-05,-0.000180485,-0.000210397,-0.00021298,-0.000177523,-0.000201913,-0.000222425,-0.000273805,-0.000205452,-0.000167993,-1.13377e-05,-1.76167e-05,-2.47653e-05,-2.90953e-05,-2.76877e-05,-8.93368e-05,-8.73237e-05,-4.40971e-05,-9.63725e-05,-5.29953e-05
545,578,-0.000125496,-0.000100291,-0.000138605,-8.86251e-05,-0.000112724,-6.45458e-05,-6.11209e-05,-6.89284e-05,-7.00828e-05,-6.53194e-05,-8.40545e-05,-5.13524e-05,-5.70162e-05,-6.27384e-05,-0.000151276,-0.000183184,-0.000185477,-0.000183088,-0.000163211,-0.000194054,-0.000217389,-0.000193742,-0.000105493,-1.31478e-05,-1.10404e-05,-1.64295e-05,-5.45536e-05,-3.32148e-05,-5.73559e-05,-5.10498e-05,-2.09292e-05,-6.92923e-05,-3.51206e-05
587,620,-6.96765e-05,-6.65842e-05,-9.33453e-05,-7.83773e-05,-7.16948e-05,-3.19487e-05,-4.0156e-05,-4.68782e-05,-4.37254e-05,-4.10649e-05,-6.15859e-05,-3.14393e-05,-3.63209e-05,-4.947e-05,-0.000122201,-0.000147571,-0.00014854,-0.000163856,-0.000115601,-0.000175958,-0.000158656,-0.000198914,-5.94702e-05,-1.29945e-05,-8.57972e-06,-1.06047e-05,-2.30405e-05,-2.21885e-05,-4.02523e-05,-2.60005e-05,-1.01909e-05,-3.71481e-05,-2.20739e-05
629,662,-3.46114e-05,-3.38384e-05,-7.80465e-05,-6.71811e-05,-4.92347e-05,-2.27073e-05,-3.01824e-05,-4.08433e-05,-3.22981e-05,-3.40492e-05,-4.49902e-05,-1.50277e-05,-3.07091e-05,-3.73567e-05,-7.9316e-05,-9.83996e-05,-9.37091e-05,-0.000112928,-0.000111027,-0.000108371,-0.000106262,-0.000142487,-4.88886e-05,-8.87604e-06,-9.99515e-06,-9.6948e-06,-1.63439e-05,-1.6391e-05,-2.41152e-05,-1.90449e-05,-4.94192e-06,-1.28121e-05,-1.73806e-05
671,704,-3.23452e-05,-2.31248e-05,-6.78655e-05,-5.41911e-05,-2.92992e-05,-1.59743e-05,-1.71661e-05,-2.89307e-05,-2.06233e-05,-2.4161e-05,-2.72554e-05,-1.4567e-05,-2.67148e-05,-2.66883e-05,-5.05025e-05,-6.20462e-05,-6.57477e-05,-5.46176e-05,-0.000103283,-6.86343e-05,-6.05529e-05,-7.58434e-05,-3.74744e-05,-8.521e-06,-1.14977e-05,-1.24562e-05,-1.55785e-05,-1.44345e-05,-1.43174e-05,-1.65547e-05,-5.7126e-06,-1.15823e-05,-1.39225e-05
713,746,-2.45535e-05,-1.45787e-05,-3.27435e-05,-4.30599e-05,-2.11926e-05,-1.19557e-05,-1.20549e-05,-2.08828e-05,-1.41975e-05,-1.82728e-05,-1.79612e-05,-1.3022e-05,-2.06325e-05,-2.36888e-05,-3.63584e-05,-4.59666e-05,-4.83386e-05,-3.31336e-05,-7.63637e-05,-6.04085e-05,-4.17895e-05,-4.24696e-05,-2.38707e-05,-1.06512e-06,-1.59182e-05,-1.19257e-05,-2.63524e-05,-2.22312e-05,-1.20757e-05,-1.36344e-05,-5.23759e-06,-1.93709e-05,-6.80295e-06
755,788,-1.21131e-05,-8.54614e-06,-3.33055e-05,-2.17146e-05,-2.623e-05,-9.01922e-06,-9.34665e-06,2.08423e-05,-9.85035e-06,-1.64233e-05,-1.31683e-05,-9.41706e-06,-1.57495e-05,-1.43891e-05,-2.41989e-05,-2.91269e-05,-2.93682e-05,-2.19517e-05,-3.14387e-05,-5.90256e-05,-2.87327e-05,-2.44418e-05,-1.51438e-05,-8.521e-06,-1.97515e-05,-1.69613e-05,-5.08065e-05,-4.37163e-05,-7.14927e-06,-1.12568e-05,-5.78669e-06,-1.30233e-05,-8.03985e-06
797,830,-3.97221e-06,-6.96382e-06,-1.30614e-05,-1.22057e-05,-2.35547e-05,-1.06449e-05,-1.12201e-05,-8.66708e-06,-1.11217e-05,-1.04355e-05,-8.22136e-06,-8.68136e-06,-1.34625e-05,-1.01318e-05,-1.15349e-05,-1.50302e-05,-1.69412e-05,-1.56287e-05,-1.59618e-05,-3.11158e-05,-2.05618e-05,-1.26706e-05,-1.54005e-05,-7.52688e-06,-2.6456e-05,-1.95827e-05,-0.000106081,-9.99366e-05,-5.75033e-06,-1.11612e-05,-1.33052e-06,-5.7725e-06,-7.2447e-06
839,872,2.55795e-13,-2.05275e-06,-8.14899e-06,-8.05276e-06,-1.76909e-05,-8.36049e-06,-1.14367e-05,-1.12809e-05,-7.53806e-06,-5.25817e-06,4.83169e-13,-8.09279e-07,-9.12459e-06,-8.18931e-06,-8.00726e-06,-1.20804e-05,-1.18438e-05,-1.26223e-05,-9.1108e-06,-1.42141e-05,-1.50185e-05,-6.88576e-06,-1.13312e-05,-7.64523e-06,-3.5181e-05,-2.63406e-05,-0.000159192,-0.000154876,-2.55795e-13,-7.22942e-06,8.52651e-14,-7.29775e-06,-7.85947e-06
881,914,3.97904e-13,2.27374e-13,1.42109e-13,-4.07112e-06,-1.54006e-05,-6.79807e-06,-1.23908e-05,-6.45286e-06,-8.32424e-06,-8.00969e-06,-7.89157e-06,-2.84217e-13,-7.60383e-06,0.0,-5.54834e-06,-7.30764e-06,-7.88129e-06,-8.50727e-06,8.52651e-14,-8.02066e-06,-1.28712e-05,-3.24862e-06,-6.19774e-06,-6.72212e-06,-4.63745e-05,-4.14488e-05,-0.000197104,-0.000184868,-2.84217e-13,-7.60991e-06,1.13687e-13,-8.16597e-06,-3.70518e-06
923,956,3.12639e-13,1.7053e-13,5.68434e-14,-2.48293e-06,-5.06859e-06,-3.09615e-06,-7.21053e-07,-5.16478e-06,-8.64796e-06,-1.7053e-13,5.11591e-13,-2.84217e-13,-2.28115e-07,-2.84217e-14,-5.68434e-14,-5.69368e-06,-6.89613e-06,-6.56422e-06,2.84217e-14,-7.83628e-06,-3.80216e-06,-6.2216e-06,-2.84217e-13,-7.58974e-06,-5.60195e-05,-7.10149e-05,-0.0002458,-0.000197502,-3.12639e-13,-5.05248e-06,-7.06285e-06,-5.49091e-06,4.52794e-06
964,1000,,,,,,,,,,,,,,,,,,,,,,,,,,,,,,,,,