File: output_data/TGA_fractional_weight_loss.csv
,NEUP_Sample_#,drying_in_air,Ar_pruge,All_Pre-scan_drying,Unbound_water,Bound_water,loose_bound_water,Tight_bound_water
0,28,0.021246,0.0535335,0.0736422,0.0593895,0.217106,0.0434558,0.160269
1,65,0.00460064,0.0208307,0.0253355,0.0685089,0.235782,0.0738847,0.150916
2,86,-0.00688679,0.0334489,0.0267925,0.0472405,0.190642,0.044914,0.125953
3,34,0.0306977,0.0581985,0.0871096,0.0315889,0.246233,0.0470922,0.183019
4,77,-0.0100915,0.0475386,0.0379268,0.0570731,0.221669,0.0574534,0.148625
5,101,-0.00986532,0.0348748,0.0253535,0.0834974,0.213217,0.102981,0.102256
6,102,-0.000884146,0.033903,0.0330488,0.0783832,0.22011,0.107548,0.103828
7,104,0.00879365,0.0386254,0.0470794,0.0596662,0.197555,0.0867175,0.10031
8,105,0.00553633,0.0387265,0.0440484,0.0682304,0.203967,0.0888985,0.105513
9,106,0.0132542,0.0340788,0.0468814,0.0901234,0.221361,0.116869,0.0955294
10,107,0.043289,0.0337535,0.0755814,0.0919317,0.212111,0.0936208,0.107709
11,108,0.100357,0.0333466,0.130357,0.0938585,0.211088,0.106739,0.0980399
12,109,0.198963,0.0305625,0.223445,0.0780103,0.200345,0.0792274,0.112206
13,73,-0.00965732,0.0688368,0.0598442,0.147454,0.162431,0.0661387,0.0873455
14,30,0.00783019,0.0280815,0.0356918,0.0764063,0.253709,0.100799,0.132757
15,30,0.0382278,0.0552448,0.0913608,0.0751924,0.225856,0.064988,0.136071
16,20,-0.00118033,0.0570474,0.0559344,0.0557408,0.231611,0.0667153,0.139369
17,58,-0.000777027,0.0232252,0.0224662,0.0351823,0.248039,0.094384,0.127907
18,88,0.339073,0.0399285,0.365463,0.0658074,0.219123,0.06762,0.125472
19,32,-0.005,0.0589001,0.0541946,0.083697,0.22622,0.0555615,0.140962
20,55,0.00320388,0.0355508,0.0386408,0.0410355,0.22827,0.0605265,0.138861
21,80,-0.00287037,0.0326532,0.0298765,0.0539259,0.246246,0.0719331,0.145266
22,24,0.474522,0.105818,0.530127,0.0569337,0.172428,0.0542226,0.104446
23,90,0.0175265,0.0429435,0.0597173,0.0549418,0.131003,0.076926,0.0511838
24,36,0.0123077,0.031322,0.0432441,0.0444996,0.10438,0.0356207,0.0580977
25,82,0.00297806,0.0229524,0.0258621,0.0358166,0.134932,0.075173,0.0481416
26,49,0.0042492,0.0257965,0.0299361,0.0351415,0.12344,0.0512466,0.0336265
27,49,0.00597315,0.0214368,0.0272819,0.0366026,0.127402,0.0522303,0.0400869
28,100,-0.000690789,0.026199,0.0255263,0.0486092,0.135161,0.0618417,0.0706184
29,38,0.000498339,0.0644175,0.0648837,0.0806125,0.149572,0.0540022,0.0885707
30,99,0.0111921,0.0205612,0.0315232,0.0372333,0.172217,0.0741247,0.0910832
31,40,0.0209831,0.056854,0.0766441,0.0687617,0.151437,0.0548111,0.0887698
32,53,0.00767857,0.0214504,0.0289643,0.0250837,0.141822,0.0676744,0.0691088